#NOTE: MSDs should be divided by the total number of molecules (N).
#Time	MSD__wat_wat	MSD__wat_Li	MSD__wat_S	MSD__Li_Li	MSD__Li_S	MSD__S_S	
 2000 25242 2717.8 1336.44 300.65 145.351 77.1129
 4000 100683 10858.9 5392.91 1183.48 584.199 299.104
 6000 226331 24421.7 12160.4 2651.65 1315.79 667.282
 8000 402166 43404.2 21637.1 4704.94 2339.87 1181.65
 10000 628168 67803.8 33821.9 7343.15 3656.43 1842.16
 12000 904314 97618.4 48713.4 10566.1 5265.34 2648.79
 14000 1.23058e+06 132846 66310.9 14373.6 7166.41 3601.44
 16000 1.60697e+06 173485 86613.8 18765.4 9359.58 4700.02
 18000 2.03345e+06 219534 109621 23741.4 11844.8 5944.6
 20000 2.51001e+06 270991 135331 29301.5 14621.9 7335.05
 22000 3.03663e+06 327854 163745 35445.2 17690.8 8871.34
 24000 3.61331e+06 390122 194859 42172.7 21051.4 10553.5
 26000 4.24002e+06 457792 228675 49483.5 24703.7 12381.4
 28000 4.91676e+06 530865 265190 57377.6 28647.5 14355
 30000 5.64351e+06 609338 304405 65854.8 32882.8 16474.3
 32000 6.42027e+06 693212 346320 74915.3 37409.6 18739.2
 34000 7.24703e+06 782485 390932 84558.7 42227.7 21149.9
 36000 8.12378e+06 877155 438243 94785.1 47337.3 23706.1
 38000 9.05049e+06 977223 488251 105595 52738.1 26408
 40000 1.00272e+07 1.08269e+06 540956 116986 58430.2 29255.4
 40000 1.00353e+07 1.08356e+06 541376 117081 58475.7 29277.7
 80000 4.007e+07 4.32677e+06 2.16232e+06 467366 233527 116821
 120000 9.00404e+07 9.72275e+06 4.85935e+06 1.05012e+06 524782 262450
 160000 1.59896e+08 1.72659e+07 8.62966e+06 1.86473e+06 931927 466008
 200000 2.49577e+08 2.695e+07 1.347e+07 2.91053e+06 1.45462e+06 727323
 240000 3.59029e+08 3.87688e+07 1.93776e+07 4.18684e+06 2.09256e+06 1.04624e+06
 280000 4.88227e+08 5.27199e+07 2.63508e+07 5.69338e+06 2.84555e+06 1.42267e+06
 320000 6.37101e+08 6.87961e+07 3.43863e+07 7.42946e+06 3.71328e+06 1.85644e+06
 360000 8.05604e+08 8.69922e+07 4.34814e+07 9.39448e+06 4.69546e+06 2.34743e+06
 400000 9.93647e+08 1.07298e+08 5.36312e+07 1.15873e+07 5.79152e+06 2.89535e+06
 440000 1.20114e+09 1.29705e+08 6.48303e+07 1.40071e+07 7.0009e+06 3.49986e+06
 480000 1.42804e+09 1.54207e+08 7.70772e+07 1.66531e+07 8.32344e+06 4.16096e+06
 520000 1.67428e+09 1.80799e+08 9.03683e+07 1.95248e+07 9.75875e+06 4.87841e+06
 560000 1.93986e+09 2.09478e+08 1.04703e+08 2.26219e+07 1.13067e+07 5.65219e+06
 600000 2.22467e+09 2.40234e+08 1.20075e+08 2.59434e+07 1.29668e+07 6.48196e+06
 640000 2.52864e+09 2.7306e+08 1.36482e+08 2.94882e+07 1.47385e+07 7.36755e+06
 680000 2.85173e+09 3.07949e+08 1.5392e+08 3.3256e+07 1.66217e+07 8.30886e+06
 720000 3.19378e+09 3.44887e+08 1.72381e+08 3.72449e+07 1.86153e+07 9.30526e+06
 760000 3.55468e+09 3.8386e+08 1.91859e+08 4.14536e+07 2.07187e+07 1.03565e+07
 800000 3.93434e+09 4.2486e+08 2.12349e+08 4.58813e+07 2.29314e+07 1.14624e+07
 800000 3.88834e+09 4.19907e+08 2.09852e+08 4.53481e+07 2.26626e+07 1.13269e+07
 1.6e+06 1.51254e+10 1.63328e+09 8.1622e+08 1.7637e+08 8.81385e+07 4.40487e+07
 2.4e+06 3.29256e+10 3.55504e+09 1.77654e+09 3.83849e+08 1.91817e+08 9.58585e+07
 3.2e+06 5.6431e+10 6.09305e+09 3.04498e+09 6.57896e+08 3.28779e+08 1.6431e+08
 4e+06 8.50529e+10 9.18337e+09 4.58984e+09 9.9156e+08 4.95578e+08 2.47694e+08
 4.8e+06 1.17867e+11 1.27264e+10 6.36107e+09 1.3741e+09 6.86819e+08 3.43302e+08
 5.6e+06 1.53261e+11 1.65474e+10 8.27065e+09 1.78661e+09 8.92975e+08 4.4633e+08
 6.4e+06 1.9069e+11 2.05874e+10 1.02897e+10 2.22269e+09 1.11091e+09 5.55244e+08
 7.2e+06 2.28746e+11 2.4694e+10 1.23418e+10 2.66583e+09 1.33235e+09 6.65906e+08
 8e+06 2.67983e+11 2.89277e+10 1.44573e+10 3.12266e+09 1.56061e+09 7.79963e+08
 8.8e+06 3.07754e+11 3.32189e+10 1.66015e+10 3.58567e+09 1.79197e+09 8.95563e+08
 9.6e+06 3.45803e+11 3.7322e+10 1.86495e+10 4.02813e+09 2.01283e+09 1.00581e+09
 1.04e+07 3.80432e+11 4.10559e+10 2.05125e+10 4.43075e+09 2.2137e+09 1.10603e+09
 1.12e+07 4.11161e+11 4.43699e+10 2.21666e+10 4.78815e+09 2.39208e+09 1.19506e+09
 1.2e+07 4.36488e+11 4.71007e+10 2.35284e+10 5.0826e+09 2.53892e+09 1.26829e+09
 1.28e+07 4.58345e+11 4.94564e+10 2.47024e+10 5.33648e+09 2.66546e+09 1.33135e+09
 1.36e+07 4.76978e+11 5.14635e+10 2.57025e+10 5.55268e+09 2.77317e+09 1.38502e+09
 1.44e+07 4.94828e+11 5.33869e+10 2.66599e+10 5.75995e+09 2.87635e+09 1.43638e+09
 1.52e+07 5.13013e+11 5.5349e+10 2.76352e+10 5.97165e+09 2.98158e+09 1.48869e+09
 1.6e+07 5.31943e+11 5.73913e+10 2.86501e+10 6.19198e+09 3.09107e+09 1.5431e+09
 1.6e+07 3.43125e+11 3.70086e+10 1.84573e+10 3.99168e+09 1.99077e+09 9.92877e+08
 3.2e+07 6.87497e+11 7.41161e+10 3.68342e+10 7.99022e+09 3.97096e+09 1.9735e+09
